Time(s),Ch 1  (V),
0.000000,4.117844
2.000000E-8,4.458000
4.000000E-8,4.208156
6.000000E-8,3.907844
8.000000E-8,4.398156
1.000000E-7,4.108000
1.200000E-7,4.017844
1.400000E-7,4.198000
1.600000E-7,4.068000
1.800000E-7,3.988000
2.000000E-7,4.058156
2.200000E-7,4.068000
2.400000E-7,3.897844
2.600000E-7,3.948156
2.800000E-7,3.987844
3.000000E-7,3.848000
3.200000E-7,3.888000
3.400000E-7,3.908000
3.600000E-7,3.858000
3.800000E-7,3.778000
4.000000E-7,3.828000
4.200000E-7,3.848156
4.400000E-7,3.737844
4.600000E-7,3.718156
4.800000E-7,3.747844
5.000000E-7,3.718000
5.200000E-7,3.678000
5.400000E-7,3.648000
5.600000E-7,3.618000
5.800000E-7,3.638000
6.000000E-7,3.578000
6.200000E-7,3.558000
6.400000E-7,3.568000
6.600000E-7,3.518156
6.800000E-7,3.508000
7.000000E-7,3.497844
7.200000E-7,3.458156
7.400000E-7,3.438000
7.600000E-7,3.398000
7.800000E-7,3.398000
8.000000E-7,3.358000
8.200000E-7,3.378000
8.400000E-7,3.318000
8.600000E-7,3.237844
8.800000E-7,3.298000
9.000000E-7,3.248000
9.200000E-7,3.278000
9.400000E-7,3.208000
9.600000E-7,3.188000
9.800000E-7,3.218000
1.000000E-6,3.128000
1.020000E-6,3.188000
1.040000E-6,3.088000
1.060000E-6,3.108156
1.080000E-6,3.067844
1.100000E-6,3.048000
1.120000E-6,3.068000
1.140000E-6,3.018000
1.160000E-6,2.988000
1.180000E-6,2.968000
1.200000E-6,2.968000
1.220000E-6,2.948000
1.240000E-6,2.908000
1.260000E-6,2.918000
1.280000E-6,2.888000
1.300000E-6,2.878156
1.320000E-6,2.877844
1.340000E-6,2.838000
1.360000E-6,2.828000
1.380000E-6,2.778156
1.400000E-6,2.808000
1.420000E-6,2.787844
1.440000E-6,2.748156
1.460000E-6,2.707844
1.480000E-6,2.708000
1.500000E-6,2.738000
1.520000E-6,2.648000
1.540000E-6,2.658156
1.560000E-6,2.648000
1.580000E-6,2.648000
1.600000E-6,2.607844
1.620000E-6,2.588000
1.640000E-6,2.578000
1.660000E-6,2.578000
1.680000E-6,2.538156
1.700000E-6,2.537844
1.720000E-6,2.528000
1.740000E-6,2.448000
1.760000E-6,2.488000
1.780000E-6,2.468156
1.800000E-6,2.427844
1.820000E-6,2.458156
1.840000E-6,2.397844
1.860000E-6,2.418000
1.880000E-6,2.398000
1.900000E-6,2.378156
1.920000E-6,2.398000
1.940000E-6,2.297844
1.960000E-6,2.368156
1.980000E-6,2.307844
2.000000E-6,2.268000
2.020000E-6,2.338000
2.040000E-6,2.248000
2.060000E-6,2.278000
2.080000E-6,2.228000
2.100000E-6,2.218000
2.120000E-6,2.208156
2.140000E-6,2.168000
2.160000E-6,2.198000
2.180000E-6,2.147844
2.200000E-6,2.158000
2.220000E-6,2.128000
2.240000E-6,2.108000
2.260000E-6,2.098000
2.280000E-6,2.078000
2.300000E-6,2.108000
2.320000E-6,2.078156
2.340000E-6,2.048000
2.360000E-6,2.017844
2.380000E-6,2.038156
2.400000E-6,2.008000
2.420000E-6,1.997844
2.440000E-6,1.948000
2.460000E-6,1.968000
2.480000E-6,1.978156
2.500000E-6,1.958000
2.520000E-6,1.937844
2.540000E-6,1.928000
2.560000E-6,1.918000
2.580000E-6,1.908156
2.600000E-6,1.877844
2.620000E-6,1.878000
2.640000E-6,1.858000
2.660000E-6,1.848156
2.680000E-6,1.848000
2.700000E-6,1.827844
2.720000E-6,1.818000
2.740000E-6,1.788156
2.760000E-6,1.787844
2.780000E-6,1.768156
2.800000E-6,1.757844
2.820000E-6,1.728156
2.840000E-6,1.728000
2.860000E-6,1.737844
2.880000E-6,1.678156
2.900000E-6,1.728000
2.920000E-6,1.718000
2.940000E-6,1.677844
2.960000E-6,1.678156
2.980000E-6,1.627844
3.000000E-6,1.688000
3.020000E-6,1.628000
3.040000E-6,1.638156
3.060000E-6,1.608000
3.080000E-6,1.577844
3.100000E-6,1.608000
3.120000E-6,1.558000
3.140000E-6,1.588156
3.160000E-6,1.557844
3.180000E-6,1.558156
3.200000E-6,1.547844
3.220000E-6,1.518000
3.240000E-6,1.538000
3.260000E-6,1.478000
3.280000E-6,1.518000
3.300000E-6,1.518156
3.320000E-6,1.477844
3.340000E-6,1.468156
3.360000E-6,1.467844
3.380000E-6,1.468000
3.400000E-6,1.448156
3.420000E-6,1.417844
3.440000E-6,1.438000
3.460000E-6,1.408000
3.480000E-6,1.408000
3.500000E-6,1.368000
3.520000E-6,1.358156
3.540000E-6,1.387844
3.560000E-6,1.378000
3.580000E-6,1.358000
3.600000E-6,1.348000
3.620000E-6,1.358000
3.640000E-6,1.338000
3.660000E-6,1.348156
3.680000E-6,1.317844
3.700000E-6,1.298156
3.720000E-6,1.277844
3.740000E-6,1.298156
3.760000E-6,1.277844
3.780000E-6,1.258156
3.800000E-6,1.288000
3.820000E-6,1.247844
3.840000E-6,1.248000
3.860000E-6,1.228156
3.880000E-6,1.227844
3.900000E-6,1.248000
3.920000E-6,1.188156
3.940000E-6,1.227844
3.960000E-6,1.178000
3.980000E-6,1.198000
4.000000E-6,1.218156
4.020000E-6,1.167844
4.040000E-6,1.178156
4.060000E-6,1.158000
4.080000E-6,1.168000
4.100000E-6,1.148000
4.120000E-6,1.118000
4.140000E-6,1.118000
4.160000E-6,1.128000
4.180000E-6,1.118000
4.200000E-6,1.118000
4.220000E-6,1.098000
4.240000E-6,1.127844
4.260000E-6,1.068000
4.280000E-6,1.088000
4.300000E-6,1.088156
4.320000E-6,1.077844
4.340000E-6,1.038000
4.360000E-6,1.038156
4.380000E-6,1.057844
4.400000E-6,1.018156
4.420000E-6,1.008000
4.440000E-6,1.028000
4.460000E-6,1.047844
4.480000E-6,1.008156
4.500000E-6,0.987844
4.520000E-6,0.998156
4.540000E-6,1.017844
4.560000E-6,0.988156
4.580000E-6,0.987844
4.600000E-6,0.988156
4.620000E-6,0.978000
4.640000E-6,0.947844
4.660000E-6,0.978156
4.680000E-6,0.937844
4.700000E-6,0.948156
4.720000E-6,0.897844
4.740000E-6,0.938156
4.760000E-6,0.918000
4.780000E-6,0.928000
4.800000E-6,0.927844
4.820000E-6,0.898000
4.840000E-6,0.918000
4.860000E-6,0.878156
4.880000E-6,0.907844
4.900000E-6,0.888156
4.920000E-6,0.868000
4.940000E-6,0.888000
4.960000E-6,0.838000
4.980000E-6,0.887844
5.000000E-6,0.838000
5.020000E-6,0.858000
5.040000E-6,0.838156
5.060000E-6,0.828000
5.080000E-6,0.837844
5.100000E-6,0.818156
5.120000E-6,0.838000
5.140000E-6,0.797844
5.160000E-6,0.808156
5.180000E-6,0.817844
5.200000E-6,0.788156
5.220000E-6,0.787844
5.240000E-6,0.768156
5.260000E-6,0.807844
5.280000E-6,0.788156
5.300000E-6,0.757844
5.320000E-6,0.778000
5.340000E-6,0.768156
5.360000E-6,0.768000
5.380000E-6,0.788000
5.400000E-6,0.747844
5.420000E-6,0.748156
5.440000E-6,0.748000
5.460000E-6,0.758000
5.480000E-6,0.737844
5.500000E-6,0.738156
5.520000E-6,0.698000
5.540000E-6,0.717844
5.560000E-6,0.718000
5.580000E-6,0.718156
5.600000E-6,0.707844
5.620000E-6,0.698156
5.640000E-6,0.718000
5.660000E-6,0.667844
5.680000E-6,0.698000
5.700000E-6,0.688000
5.720000E-6,0.688000
5.740000E-6,0.698000
5.760000E-6,0.638156
5.780000E-6,0.688000
5.800000E-6,0.658000
5.820000E-6,0.647844
5.840000E-6,0.678000
5.860000E-6,0.608000
5.880000E-6,0.678000
5.900000E-6,0.638000
5.920000E-6,0.638156
5.940000E-6,0.628000
5.960000E-6,0.647844
5.980000E-6,0.668156
6.000000E-6,0.608000
6.020000E-6,0.657844
6.040000E-6,0.618000
6.060000E-6,0.628156
6.080000E-6,0.598000
6.100000E-6,0.577844
6.120000E-6,0.568000
6.140000E-6,0.598156
6.160000E-6,0.588000
6.180000E-6,0.588000
6.200000E-6,0.597844
6.220000E-6,0.568000
6.240000E-6,0.568156
6.260000E-6,0.578000
6.280000E-6,0.608000
6.300000E-6,0.588000
6.320000E-6,0.547844
6.340000E-6,0.568156
6.360000E-6,0.577844
6.380000E-6,0.568000
6.400000E-6,0.538156
6.420000E-6,0.528000
6.440000E-6,0.578000
6.460000E-6,0.558000
6.480000E-6,0.528000
6.500000E-6,0.518000
6.520000E-6,0.547844
6.540000E-6,0.548156
6.560000E-6,0.528000
6.580000E-6,0.547844
6.600000E-6,0.538156
6.620000E-6,0.528000
6.640000E-6,0.548000
6.660000E-6,0.517844
6.680000E-6,0.508156
6.700000E-6,0.507844
6.720000E-6,0.478156
6.740000E-6,0.528000
6.760000E-6,0.528000
6.780000E-6,0.487844
6.800000E-6,0.458000
6.820000E-6,0.518156
6.840000E-6,0.467844
6.860000E-6,0.508156
6.880000E-6,0.478000
6.900000E-6,0.478000
6.920000E-6,0.488000
6.940000E-6,0.448000
6.960000E-6,0.508000
6.980000E-6,0.457844
7.000000E-6,0.468156
7.020000E-6,0.457844
7.040000E-6,0.438156
7.060000E-6,0.478000
7.080000E-6,0.438000
7.100000E-6,0.438000
7.120000E-6,0.448000
7.140000E-6,0.427844
7.160000E-6,0.438156
7.180000E-6,0.428000
7.200000E-6,0.477844
7.220000E-6,0.418156
7.240000E-6,0.437844
7.260000E-6,0.458156
7.280000E-6,0.418000
7.300000E-6,0.427844
7.320000E-6,0.398156
7.340000E-6,0.438000
7.360000E-6,0.417844
7.380000E-6,0.428156
7.400000E-6,0.418000
7.420000E-6,0.448000
7.440000E-6,0.428000
7.460000E-6,0.398000
7.480000E-6,0.398000
7.500000E-6,0.428000
7.520000E-6,0.408000
7.540000E-6,0.418000
7.560000E-6,0.398000
7.580000E-6,0.378000
7.600000E-6,0.397844
7.620000E-6,0.398156
7.640000E-6,0.388000
7.660000E-6,0.407844
7.680000E-6,0.408156
7.700000E-6,0.368000
7.720000E-6,0.378000
7.740000E-6,0.358000
7.760000E-6,0.377844
7.780000E-6,0.378156
7.800000E-6,0.388000
7.820000E-6,0.388000
7.840000E-6,0.357844
7.860000E-6,0.388156
7.880000E-6,0.348000
7.900000E-6,0.408000
7.920000E-6,0.338000
7.940000E-6,0.368000
7.960000E-6,0.368000
7.980000E-6,0.328000
8.000000E-6,0.358000
8.020000E-6,0.348000
8.040000E-6,0.358000
8.060000E-6,0.358000
8.080000E-6,0.318000
8.100000E-6,0.348000
8.120000E-6,0.328000
8.140000E-6,0.358000
8.160000E-6,0.358000
8.180000E-6,0.338000
8.200000E-6,0.337844
8.220000E-6,0.308156
8.240000E-6,0.337844
8.260000E-6,0.328156
8.280000E-6,0.358000
8.300000E-6,0.307844
8.320000E-6,0.308156
8.340000E-6,0.327844
8.360000E-6,0.308156
8.380000E-6,0.318000
8.400000E-6,0.328000
8.420000E-6,0.328000
8.440000E-6,0.337844
8.460000E-6,0.298156
8.480000E-6,0.308000
8.500000E-6,0.337844
8.520000E-6,0.318156
8.540000E-6,0.308000
8.560000E-6,0.307844
8.580000E-6,0.298156
8.600000E-6,0.308000
8.620000E-6,0.308000
8.640000E-6,0.307844
8.660000E-6,0.318000
8.680000E-6,0.298156
8.700000E-6,0.288000
8.720000E-6,0.298000
8.740000E-6,0.297844
8.760000E-6,0.298156
8.780000E-6,0.268000
8.800000E-6,0.277844
8.820000E-6,0.268156
8.840000E-6,0.298000
8.860000E-6,0.278000
8.880000E-6,0.288000
8.900000E-6,0.278000
8.920000E-6,0.267844
8.940000E-6,0.298000
8.960000E-6,0.268156
8.980000E-6,0.267844
9.000000E-6,0.268156
9.020000E-6,0.267844
9.040000E-6,0.298000
9.060000E-6,0.258156
9.080000E-6,0.268000
9.100000E-6,0.257844
9.120000E-6,0.268000
9.140000E-6,0.258156
9.160000E-6,0.248000
9.180000E-6,0.268000
9.200000E-6,0.228000
9.220000E-6,0.268000
9.240000E-6,0.268000
9.260000E-6,0.248000
9.280000E-6,0.257844
9.300000E-6,0.238156
9.320000E-6,0.278000
9.340000E-6,0.278000
9.360000E-6,0.248000
9.380000E-6,0.227844
9.400000E-6,0.238156
9.420000E-6,0.287844
9.440000E-6,0.248000
9.460000E-6,0.218156
9.480000E-6,0.258000
9.500000E-6,0.258000
9.520000E-6,0.248000
9.540000E-6,0.248000
9.560000E-6,0.248000
9.580000E-6,0.218000
9.600000E-6,0.248000
9.620000E-6,0.248000
9.640000E-6,0.237844
9.660000E-6,0.248000
9.680000E-6,0.228156
9.700000E-6,0.237844
9.720000E-6,0.218156
9.740000E-6,0.277844
9.760000E-6,0.208156
9.780000E-6,0.227844
9.800000E-6,0.228156
9.820000E-6,0.228000
9.840000E-6,0.248000
9.860000E-6,0.217844
9.880000E-6,0.228156
9.900000E-6,0.227844
9.920000E-6,0.218156
9.940000E-6,0.248000
9.960000E-6,0.208000
9.980000E-6,0.218000
