Time(s),Ch 1  (V),
0.000000,4.118000
2.000000E-8,4.567844
4.000000E-8,4.188000
6.000000E-8,3.848000
8.000000E-8,4.558156
1.000000E-7,4.177844
1.200000E-7,3.988000
1.400000E-7,4.358156
1.600000E-7,4.167844
1.800000E-7,4.018156
2.000000E-7,4.218000
2.200000E-7,4.178000
2.400000E-7,4.027844
2.600000E-7,4.128000
2.800000E-7,4.098156
3.000000E-7,4.038000
3.200000E-7,4.008000
3.400000E-7,4.088000
3.600000E-7,4.028000
3.800000E-7,3.998000
4.000000E-7,3.997844
4.200000E-7,4.008000
4.400000E-7,3.988156
4.600000E-7,3.958000
4.800000E-7,3.948000
5.000000E-7,3.968000
5.200000E-7,3.947844
5.400000E-7,3.918156
5.600000E-7,3.887844
5.800000E-7,3.908156
6.000000E-7,3.878000
6.200000E-7,3.878000
6.400000E-7,3.858000
6.600000E-7,3.847844
6.800000E-7,3.828156
7.000000E-7,3.828000
7.200000E-7,3.798000
7.400000E-7,3.778000
7.600000E-7,3.798000
7.800000E-7,3.737844
8.000000E-7,3.768156
8.200000E-7,3.738000
8.400000E-7,3.717844
8.600000E-7,3.718000
8.800000E-7,3.708000
9.000000E-7,3.738156
9.200000E-7,3.627844
9.400000E-7,3.678000
9.600000E-7,3.658156
9.800000E-7,3.627844
1.000000E-6,3.618000
1.020000E-6,3.628000
1.040000E-6,3.628156
1.060000E-6,3.608000
1.080000E-6,3.577844
1.100000E-6,3.578156
1.120000E-6,3.518000
1.140000E-6,3.538000
1.160000E-6,3.547844
1.180000E-6,3.518000
1.200000E-6,3.508156
1.220000E-6,3.448000
1.240000E-6,3.478000
1.260000E-6,3.488000
1.280000E-6,3.467844
1.300000E-6,3.448156
1.320000E-6,3.418000
1.340000E-6,3.417844
1.360000E-6,3.388156
1.380000E-6,3.408000
1.400000E-6,3.398000
1.420000E-6,3.388000
1.440000E-6,3.358000
1.460000E-6,3.367844
1.480000E-6,3.348156
1.500000E-6,3.337844
1.520000E-6,3.318000
1.540000E-6,3.298000
1.560000E-6,3.348156
1.580000E-6,3.278000
1.600000E-6,3.278000
1.620000E-6,3.237844
1.640000E-6,3.228156
1.660000E-6,3.228000
1.680000E-6,3.238000
1.700000E-6,3.188000
1.720000E-6,3.178000
1.740000E-6,3.218000
1.760000E-6,3.187844
1.780000E-6,3.188156
1.800000E-6,3.177844
1.820000E-6,3.128156
1.840000E-6,3.178000
1.860000E-6,3.137844
1.880000E-6,3.128000
1.900000E-6,3.108156
1.920000E-6,3.098000
1.940000E-6,3.097844
1.960000E-6,3.088156
1.980000E-6,3.058000
2.000000E-6,3.037844
2.020000E-6,3.048000
2.040000E-6,3.068156
2.060000E-6,2.988000
2.080000E-6,3.008000
2.100000E-6,3.027844
2.120000E-6,3.008156
2.140000E-6,3.008000
2.160000E-6,2.937844
2.180000E-6,2.988156
2.200000E-6,2.958000
2.220000E-6,2.938000
2.240000E-6,2.947844
2.260000E-6,2.928000
2.280000E-6,2.908156
2.300000E-6,2.877844
2.320000E-6,2.898156
2.340000E-6,2.857844
2.360000E-6,2.858156
2.380000E-6,2.828000
2.400000E-6,2.827844
2.420000E-6,2.888000
2.440000E-6,2.818000
2.460000E-6,2.808156
2.480000E-6,2.797844
2.500000E-6,2.838000
2.520000E-6,2.798156
2.540000E-6,2.778000
2.560000E-6,2.798000
2.580000E-6,2.757844
2.600000E-6,2.738000
2.620000E-6,2.728000
2.640000E-6,2.728156
2.660000E-6,2.718000
2.680000E-6,2.688000
2.700000E-6,2.728000
2.720000E-6,2.697844
2.740000E-6,2.668000
2.760000E-6,2.668156
2.780000E-6,2.677844
2.800000E-6,2.658156
2.820000E-6,2.617844
2.840000E-6,2.638000
2.860000E-6,2.628156
2.880000E-6,2.628000
2.900000E-6,2.548000
2.920000E-6,2.587844
2.940000E-6,2.588156
2.960000E-6,2.538000
2.980000E-6,2.557844
3.000000E-6,2.568000
3.020000E-6,2.538156
3.040000E-6,2.527844
3.060000E-6,2.498156
3.080000E-6,2.517844
3.100000E-6,2.508156
3.120000E-6,2.497844
3.140000E-6,2.498156
3.160000E-6,2.498000
3.180000E-6,2.487844
3.200000E-6,2.428156
3.220000E-6,2.448000
3.240000E-6,2.437844
3.260000E-6,2.458156
3.280000E-6,2.408000
3.300000E-6,2.377844
3.320000E-6,2.398000
3.340000E-6,2.408156
3.360000E-6,2.388000
3.380000E-6,2.388000
3.400000E-6,2.368000
3.420000E-6,2.388000
3.440000E-6,2.368000
3.460000E-6,2.348000
3.480000E-6,2.357844
3.500000E-6,2.338156
3.520000E-6,2.337844
3.540000E-6,2.318000
3.560000E-6,2.308000
3.580000E-6,2.288000
3.600000E-6,2.298156
3.620000E-6,2.298000
3.640000E-6,2.278000
3.660000E-6,2.258000
3.680000E-6,2.237844
3.700000E-6,2.248156
3.720000E-6,2.238000
3.740000E-6,2.258000
3.760000E-6,2.198000
3.780000E-6,2.227844
3.800000E-6,2.208000
3.820000E-6,2.228156
3.840000E-6,2.208000
3.860000E-6,2.188000
3.880000E-6,2.198000
3.900000E-6,2.167844
3.920000E-6,2.188156
3.940000E-6,2.157844
3.960000E-6,2.148156
3.980000E-6,2.128000
4.000000E-6,2.117844
4.020000E-6,2.148156
4.040000E-6,2.097844
4.060000E-6,2.118156
4.080000E-6,2.118000
4.100000E-6,2.108000
4.120000E-6,2.087844
4.140000E-6,2.058156
4.160000E-6,2.107844
4.180000E-6,2.058156
4.200000E-6,2.067844
4.220000E-6,2.058156
4.240000E-6,2.048000
4.260000E-6,2.038000
4.280000E-6,2.008000
4.300000E-6,2.038000
4.320000E-6,1.978000
4.340000E-6,2.018000
4.360000E-6,1.987844
4.380000E-6,1.958156
4.400000E-6,2.008000
4.420000E-6,1.968000
4.440000E-6,1.977844
4.460000E-6,1.948156
4.480000E-6,1.998000
4.500000E-6,1.957844
4.520000E-6,1.948156
4.540000E-6,1.958000
4.560000E-6,1.938000
4.580000E-6,1.907844
4.600000E-6,1.908156
4.620000E-6,1.928000
4.640000E-6,1.878000
4.660000E-6,1.897844
4.680000E-6,1.858156
4.700000E-6,1.858000
4.720000E-6,1.868000
4.740000E-6,1.877844
4.760000E-6,1.878000
4.780000E-6,1.838156
4.800000E-6,1.827844
4.820000E-6,1.838000
4.840000E-6,1.828156
4.860000E-6,1.837844
4.880000E-6,1.788156
4.900000E-6,1.808000
4.920000E-6,1.807844
4.940000E-6,1.788156
4.960000E-6,1.798000
4.980000E-6,1.778000
5.000000E-6,1.768000
5.020000E-6,1.787844
5.040000E-6,1.748156
5.060000E-6,1.778000
5.080000E-6,1.727844
5.100000E-6,1.768000
5.120000E-6,1.758156
5.140000E-6,1.738000
5.160000E-6,1.728000
5.180000E-6,1.698000
5.200000E-6,1.718000
5.220000E-6,1.717844
5.240000E-6,1.698156
5.260000E-6,1.678000
5.280000E-6,1.687844
5.300000E-6,1.678000
5.320000E-6,1.678000
5.340000E-6,1.678156
5.360000E-6,1.658000
5.380000E-6,1.638000
5.400000E-6,1.658000
5.420000E-6,1.657844
5.440000E-6,1.688000
5.460000E-6,1.628156
5.480000E-6,1.627844
5.500000E-6,1.618156
5.520000E-6,1.657844
5.540000E-6,1.618156
5.560000E-6,1.607844
5.580000E-6,1.588000
5.600000E-6,1.598000
5.620000E-6,1.598000
5.640000E-6,1.548156
5.660000E-6,1.547844
5.680000E-6,1.578156
5.700000E-6,1.587844
5.720000E-6,1.578156
5.740000E-6,1.558000
5.760000E-6,1.548000
5.780000E-6,1.528000
5.800000E-6,1.558000
5.820000E-6,1.548000
5.840000E-6,1.527844
5.860000E-6,1.528156
5.880000E-6,1.497844
5.900000E-6,1.508000
5.920000E-6,1.488156
5.940000E-6,1.488000
5.960000E-6,1.458000
5.980000E-6,1.478000
6.000000E-6,1.497844
6.020000E-6,1.438000
6.040000E-6,1.468156
6.060000E-6,1.488000
6.080000E-6,1.497844
6.100000E-6,1.468156
6.120000E-6,1.448000
6.140000E-6,1.468000
6.160000E-6,1.467844
6.180000E-6,1.448000
6.200000E-6,1.428156
6.220000E-6,1.408000
6.240000E-6,1.437844
6.260000E-6,1.428156
6.280000E-6,1.427844
6.300000E-6,1.388156
6.320000E-6,1.397844
6.340000E-6,1.398000
6.360000E-6,1.378000
6.380000E-6,1.408000
6.400000E-6,1.368000
6.420000E-6,1.358000
6.440000E-6,1.388156
6.460000E-6,1.428000
6.480000E-6,1.348000
6.500000E-6,1.358000
6.520000E-6,1.338000
6.540000E-6,1.347844
6.560000E-6,1.348156
6.580000E-6,1.308000
6.600000E-6,1.328000
6.620000E-6,1.327844
6.640000E-6,1.318000
6.660000E-6,1.348156
6.680000E-6,1.348000
6.700000E-6,1.298000
6.720000E-6,1.298000
6.740000E-6,1.307844
6.760000E-6,1.298000
6.780000E-6,1.278156
6.800000E-6,1.297844
6.820000E-6,1.308156
6.840000E-6,1.297844
6.860000E-6,1.268156
6.880000E-6,1.278000
6.900000E-6,1.257844
6.920000E-6,1.248000
6.940000E-6,1.258000
6.960000E-6,1.238000
6.980000E-6,1.258156
7.000000E-6,1.227844
7.020000E-6,1.228156
7.040000E-6,1.248000
7.060000E-6,1.228000
7.080000E-6,1.228000
7.100000E-6,1.238000
7.120000E-6,1.248000
7.140000E-6,1.237844
7.160000E-6,1.208156
7.180000E-6,1.208000
7.200000E-6,1.197844
7.220000E-6,1.198000
7.240000E-6,1.208156
7.260000E-6,1.198000
7.280000E-6,1.188000
7.300000E-6,1.178000
7.320000E-6,1.178000
7.340000E-6,1.187844
7.360000E-6,1.178156
7.380000E-6,1.148000
7.400000E-6,1.158000
7.420000E-6,1.198000
7.440000E-6,1.167844
7.460000E-6,1.178156
7.480000E-6,1.168000
7.500000E-6,1.158000
7.520000E-6,1.118000
7.540000E-6,1.118000
7.560000E-6,1.128000
7.580000E-6,1.107844
7.600000E-6,1.118156
7.620000E-6,1.097844
7.640000E-6,1.098156
7.660000E-6,1.077844
7.680000E-6,1.118156
7.700000E-6,1.138000
7.720000E-6,1.088000
7.740000E-6,1.097844
7.760000E-6,1.078156
7.780000E-6,1.128000
7.800000E-6,1.078000
7.820000E-6,1.088000
7.840000E-6,1.088000
7.860000E-6,1.048000
7.880000E-6,1.107844
7.900000E-6,1.078156
7.920000E-6,1.067844
7.940000E-6,1.048156
7.960000E-6,1.038000
7.980000E-6,1.088000
8.000000E-6,1.038000
8.020000E-6,1.038000
8.040000E-6,1.067844
8.060000E-6,1.068156
8.080000E-6,1.037844
8.100000E-6,1.008000
8.120000E-6,1.028156
8.140000E-6,1.017844
8.160000E-6,1.018000
8.180000E-6,1.048156
8.200000E-6,1.017844
8.220000E-6,1.028156
8.240000E-6,0.977844
8.260000E-6,1.008156
8.280000E-6,0.978000
8.300000E-6,0.997844
8.320000E-6,0.958156
8.340000E-6,0.998000
8.360000E-6,0.997844
8.380000E-6,0.958156
8.400000E-6,0.978000
8.420000E-6,0.987844
8.440000E-6,1.018156
8.460000E-6,0.978000
8.480000E-6,0.948000
8.500000E-6,0.968000
8.520000E-6,0.978000
8.540000E-6,0.958000
8.560000E-6,0.928000
8.580000E-6,0.947844
8.600000E-6,0.938000
8.620000E-6,0.938000
8.640000E-6,0.948156
8.660000E-6,0.938000
8.680000E-6,0.918000
8.700000E-6,0.917844
8.720000E-6,0.958156
8.740000E-6,0.917844
8.760000E-6,0.898000
8.780000E-6,0.918000
8.800000E-6,0.938156
8.820000E-6,0.908000
8.840000E-6,0.878000
8.860000E-6,0.918000
8.880000E-6,0.917844
8.900000E-6,0.908156
8.920000E-6,0.878000
8.940000E-6,0.898000
8.960000E-6,0.897844
8.980000E-6,0.888156
9.000000E-6,0.887844
9.020000E-6,0.898000
9.040000E-6,0.868156
9.060000E-6,0.868000
9.080000E-6,0.887844
9.100000E-6,0.888156
9.120000E-6,0.897844
9.140000E-6,0.838156
9.160000E-6,0.857844
9.180000E-6,0.858156
9.200000E-6,0.867844
9.220000E-6,0.848156
9.240000E-6,0.838000
9.260000E-6,0.848000
9.280000E-6,0.848000
9.300000E-6,0.857844
9.320000E-6,0.838156
9.340000E-6,0.838000
9.360000E-6,0.828000
9.380000E-6,0.807844
9.400000E-6,0.848000
9.420000E-6,0.818000
9.440000E-6,0.818156
9.460000E-6,0.808000
9.480000E-6,0.817844
9.500000E-6,0.838156
9.520000E-6,0.807844
9.540000E-6,0.798000
9.560000E-6,0.788156
9.580000E-6,0.818000
9.600000E-6,0.788000
9.620000E-6,0.777844
9.640000E-6,0.798000
9.660000E-6,0.808156
9.680000E-6,0.787844
9.700000E-6,0.768000
9.720000E-6,0.778156
9.740000E-6,0.748000
9.760000E-6,0.808000
9.780000E-6,0.758000
9.800000E-6,0.768000
9.820000E-6,0.778000
9.840000E-6,0.747844
9.860000E-6,0.788156
9.880000E-6,0.738000
9.900000E-6,0.758000
9.920000E-6,0.727844
9.940000E-6,0.758000
9.960000E-6,0.778156
9.980000E-6,0.717844
